EEG 1, EEG 2, EEG 3, EEG 4, EEG 5, EEG 6, EEG 7, EEG 8, TRIG
58410.950,20435.820,-12826.680,65004.340,-4874.523,60107.270,65004.340,15019.060,0.000
234751.800,89326.060,-28792.530,222519.100,-716.972,241735.000,256133.600,54469.820,0.000
447885.300,203816.700,15843.980,309259.900,68050.030,470775.100,488262.500,96015.040,0.000
600121.100,348843.400,140934.400,183079.100,219540.400,650510.100,667242.000,151164.600,0.000
694795.500,499206.900,296311.600,-108343.300,392822.500,749781.100,778556.000,250814.600,0.000
748064.100,621025.700,452069.100,-360132.700,541749.800,762504.400,819054.800,384994.700,0.000
755474.900,701616.000,596650.600,-352583.000,660557.900,723305.600,799022.200,532573.400,0.000
739990.900,744418.400,701657.000,-74804.370,735148.600,689259.800,757824.800,663104.300,0.000
741094.600,759814.100,750644.800,312297.800,759297.900,691955.100,739696.900,749599.600,0.000
761336.300,762744.300,763170.100,651198.000,758171.200,726591.800,751136.800,787817.200,0.000
770405.300,761929.300,767548.800,835471.500,759586.200,760498.100,762166.000,786111.800,0.000
752244.200,757324.700,770694.700,839909.600,765499.000,762625.300,750281.600,765591.300,0.000
727602.400,748597.300,764508.900,753477.700,761967.400,739512.600,728309.000,749745.400,0.000
724417.300,740170.900,748542.400,710920.800,746144.400,724168.400,722717.400,747244.300,0.000
740521.400,736825.400,735542.200,755888.500,732471.600,732790.100,736414.600,749108.800,0.000
749188.100,737624.700,735266.300,807349.300,732929.100,747293.600,746673.300,737121.300,0.000
736399.800,737282.100,741809.000,785057.700,741196.100,743594.600,737332.400,697440.500,0.000
717741.000,733006.600,742170.500,716791.500,742146.100,716068.100,719302.100,635234.200,0.000
714790.800,727536.100,733334.900,690866.700,732081.400,676650.100,713522.100,567073.300,0.000
726242.000,724819.300,724714.300,733218.100,722095.200,642010.100,722631.100,503685.800,0.000
732160.000,724718.300,724286.000,778749.800,721870.300,610503.700,729637.600,449525.900,0.000
722100.600,723673.200,728313.100,765131.800,727200.000,569155.700,722293.600,410441.100,0.000
707583.800,719735.800,727626.100,713429.600,727097.300,522710.300,708412.700,390964.900,0.000
704479.500,714908.500,720258.900,691503.400,718918.400,490363.700,703279.800,385004.700,0.000
711911.600,712086.100,713139.400,720749.100,710799.100,478730.600,708958.500,378660.700,0.000
715559.600,711232.100,711980.700,753934.200,709769.800,472532.500,713366.400,364258.000,0.000
707920.900,709817.800,714055.100,744534.400,712813.800,455020.900,707720.400,346954.800,0.000
697013.400,706389.200,712870.900,706602.900,712103.400,428442.300,697326.800,335494.400,0.000
693863.800,702258.900,707065.200,688920.400,705734.900,407867.300,692748.900,330198.600,0.000
697958.800,699432.000,701395.900,707859.800,699316.800,399763.800,695560.600,323743.200,0.000
699685.300,697971.800,699709.800,730912.600,697673.800,394825.500,697765.300,311860.100,0.000
694009.200,696231.600,700174.000,725047.100,698816.200,382227.500,693471.400,298670.800,0.000
686073.700,693197.000,698553.100,698710.800,697569.700,363666.200,685943.100,290277.500,0.000
682927.300,689633.900,693998.400,684797.400,692662.300,349118.900,681869.700,286500.800,0.000
684334.700,686818.400,689503.300,695341.400,687638.300,342749.300,682394.600,281888.700,0.000
684490.300,684878.200,687401.400,709903.700,685519.200,338556.200,682806.800,273430.300,0.000
680358.700,682870.900,686580.300,706673.200,685136.900,329708.200,679556.400,264045.000,0.000
674798.400,680143.200,684607.700,689725.100,683449.300,317187.500,674306.300,257879.600,0.000
671694.300,677037.300,681041.100,679067.300,679695.800,306898.900,670675.600,254724.100,0.000
671014.600,674249.900,677478.700,683041.100,675786.800,301284.700,669441.100,250961.000,0.000
669928.400,671946.600,675068.700,690743.400,673318.300,297070.500,668443.100,244737.300,0.000
666966.400,669728.300,673260.500,689392.900,671757.900,290620.100,665964.400,237998.700,0.000
663238.300,667230.500,671014.600,679796.200,669719.000,282365.600,662461.600,233286.200,0.000
660203.700,664481.100,668199.100,671866.400,666842.800,275051.500,659208.800,230363.900,0.000
657969.500,661733.300,665351.400,670899.400,663795.100,269786.300,656679.700,227080.500,0.000
655938.900,659169.100,662726.200,673246.500,661085.900,265360.000,654615.200,222474.500,0.000
653590.100,656791.400,660193.300,673144.300,658653.800,260545.500,652677.600,217691.200,0.000
649592.200,654458.700,657744.500,669081.600,656346.300,255356.900,650458.600,214002.000,0.000
642406.100,651977.600,655475.500,663368.700,654108.300,250172.700,647519.900,211159.200,0.000
632699.900,649276.500,653153.100,658867.700,651699.600,245110.500,644091.900,208159.900,0.000
622624.600,646538.300,650390.800,657198.800,648840.300,240479.600,641259.500,204733.300,0.000
613155.200,643389.900,647356.800,657835.900,645798.700,236807.100,639674.000,201403.900,0.000
603436.700,638423.100,644766.400,657741.100,643296.100,233806.800,638075.100,198477.100,0.000
592493.600,630858.600,642872.700,653770.900,641496.000,230175.600,633903.300,195703.900,0.000
581213.900,621489.300,640916.400,646911.100,639537.900,225326.700,626308.900,192931.900,0.000
571678.900,611578.200,638079.900,642379.300,636601.100,220605.600,617317.900,190377.000,0.000
564487.800,601944.200,634729.400,643361.100,633167.600,217732.700,608712.800,188098.000,0.000
557678.100,592781.600,632049.400,645926.800,630532.800,216231.200,599657.000,185713.100,0.000
549066.400,583885.200,630392.400,643275.400,629008.400,213695.600,588639.900,182990.500,0.000
539218.800,575112.900,628672.400,635007.100,627346.400,209078.400,576478.900,180387.600,0.000
530809.500,566616.100,625811.200,628574.400,624387.900,204380.600,565923.800,178457.800,0.000
525033.300,558695.800,622291.500,629607.500,620737.000,202070.400,558232.200,176933.900,0.000
519867.400,551390.400,619564.400,633777.200,618022.800,201563.800,551406.500,174966.200,0.000
512680.900,544289.400,618035.800,632078.100,616647.100,199805.600,542723.300,172336.900,0.000
503853.600,536997.600,616449.600,623142.800,615158.100,195476.200,532358.200,169902.300,0.000
496305.000,529627.100,613600.600,615586.300,612219.700,190925.300,523135.600,168423.700,0.000
491531.300,522694.600,610025.400,616464.800,608486.400,189012.800,516684.700,167420.700,0.000
487530.600,516453.000,607284.800,621413.900,605735.300,189113.900,511195.900,165761.800,0.000
481474.800,510486.700,605803.400,620359.500,604412.800,187883.200,503842.500,163252.900,0.000
473584.500,504247.200,604273.300,611313.100,603002.400,183880.200,494618.600,160986.700,0.000
466792.600,497767.200,601462.600,603239.400,600113.300,179572.000,486313.300,159830.500,0.000
462725.300,491638.400,597915.700,603829.800,596397.900,177937.800,480696.800,159174.500,0.000
459504.000,486222.200,595187.600,608940.000,593643.300,178356.500,476134.100,157743.600,0.000
454317.000,481115.600,593695.100,608280.300,592305.600,177460.500,469835.400,155371.800,0.000
447269.800,475699.800,592042.900,599408.800,590775.600,173806.300,461647.900,153267.700,0.000
441154.600,469958.100,588777.100,590796.400,587421.800,169814.600,454181.500,152332.600,0.000
437960.300,464884.100,584432.800,590180.600,582885.100,168611.200,449607.700,152017.800,0.000
436710.800,461647.200,580852.400,594159.900,579248.100,170020.500,447269.300,151221.900,0.000
434788.200,459914.500,578671.000,593079.800,577197.500,170721.000,444663.500,149743.000,0.000
431356.600,458198.900,576753.400,584525.200,575405.100,168650.300,440903.300,148486.000,0.000
428307.700,455800.000,574005.400,576588.300,572605.100,165704.800,437786.300,148182.400,0.000
427285.000,453378.700,570799.900,576542.300,569248.300,164911.500,436832.000,148302.900,0.000
427212.800,451714.100,568286.900,580935.700,566696.200,166208.200,436851.600,147747.100,0.000
425759.200,450516.900,566701.400,580555.100,565238.000,166674.200,435443.000,146360.400,0.000
422542.600,448861.300,565028.500,573005.600,563687.200,164665.500,432192.700,145140.800,0.000
419568.800,446476.600,562408.400,565605.500,561025.800,161989.800,429119.400,144841.900,0.000
418396.200,444062.700,559284.600,565106.600,557763.900,161257.500,427850.500,144930.600,0.000
418048.000,442282.300,556745.100,568676.700,555182.300,162290.300,427483.000,144346.200,0.000
416482.300,440894.400,555033.900,568197.900,553580.600,162533.600,425960.300,142977.300,0.000
413428.900,439170.400,553278.300,561415.900,551936.200,160667.700,422905.200,141796.300,0.000
410656.900,436911.900,550725.800,554618.500,549352.900,158312.600,420020.800,141494.700,0.000
409455.600,434655.800,547743.200,553739.400,546250.400,157639.700,418677.300,141541.900,0.000
408917.500,432882.000,545253.000,556473.900,543719.600,158401.600,418104.400,140949.800,0.000
407303.800,431384.300,543465.400,555874.400,542023.800,158439.800,416567.400,139640.000,0.000
404447.000,429622.700,541648.200,549894.400,540304.900,156733.800,413746.300,138516.800,0.000
401869.700,427475.400,539168.900,543767.100,537804.100,154687.500,411054.300,138195.300,0.000
400615.000,425347.900,536327.000,542547.500,534861.400,154051.500,409627.600,138176.700,0.000
399877.600,423572.200,533884.800,544431.900,532381.800,154544.600,408839.900,137577.100,0.000
398224.200,421979.500,532020.400,543663.900,530592.100,154399.800,407277.700,136344.600,0.000
395566.300,420189.700,530140.400,538447.800,528796.300,152858.900,404676.600,135287.800,0.000
393172.500,418140.400,527729.100,532997.600,526371.200,151099.300,402170.300,134935.800,0.000
391857.900,416122.800,525022.100,531486.600,523582.500,150484.800,400669.900,134839.500,0.000
390931.900,414347.100,522629.000,532560.200,521156.200,150725.900,399683.500,134234.100,0.000
389250.700,412679.500,520696.000,531602.100,519282.100,150423.500,398096.900,133088.700,0.000
386785.100,410872.200,518758.400,527084.900,517414.300,149042.800,395698.000,132101.400,0.000
384558.300,408907.600,516409.400,522283.600,515058.100,147539.800,393364.600,131713.900,0.000
383183.300,406981.500,513827.600,520532.800,512412.300,146935.300,391801.900,131535.800,0.000
382086.700,405207.900,511482.700,520867.200,510039.300,146950.000,390638.900,130926.500,0.000
380387.800,403484.300,509491.400,519714.200,508092.700,146516.500,389030.000,129870.500,0.000
378100.500,401668.700,507503.900,515814.100,506161.600,145284.400,386810.800,128951.800,0.000
376021.400,399775.900,505211.200,511608.700,503866.700,144003.800,384633.100,128527.400,0.000
374590.000,397924.800,502742.100,509669.200,501349.700,143401.400,383020.700,128269.400,0.000
373345.400,396155.700,500443.700,509355.000,499028.200,143220.100,381706.800,127657.900,0.000
371638.000,394393.300,498405.800,508014.800,497023.000,142681.200,380079.200,126688.700,0.000
369510.500,392577.300,496377.600,504642.500,495038.800,141582.000,378015.500,125834.600,0.000
367558.900,390744.600,494135.200,500966.100,492798.100,140488.500,375974.200,125375.000,0.000
366077.800,388953.700,491765.400,498885.200,490394.300,139883.200,374324.400,125043.100,0.000
364709.900,387191.500,489511.100,498021.500,488121.900,139538.000,372886.800,124430.800,0.000
363001.500,385405.500,487438.500,496510.200,486071.800,138917.700,371244.900,123542.300,0.000
361013.400,383595.700,485379.400,493576.100,484046.000,137933.700,369312.300,122747.200,0.000
359169.400,381812.700,483181.400,490355.000,481852.500,136993.200,367387.800,122255.700,0.000
357647.200,380069.800,480897.500,488175.200,479546.400,136382.100,365712.600,121858.200,0.000
356180.700,378316.800,478684.600,486861.900,477319.800,135904.600,364177.800,121246.800,0.000
354477.700,376520.000,476588.600,485200.800,475238.300,135224.400,362526.400,120430.700,0.000
352608.200,374721.700,474508.300,482619.800,473182.200,134337.500,360701.800,119687.900,0.000
350853.200,372979.300,472349.600,479779.700,471029.800,133518.500,358875.300,119169.000,0.000
349299.000,371274.200,470138.900,477537.200,468806.300,132900.400,357185.200,118715.700,0.000
347757.400,369532.700,467964.400,475869.400,466622.300,132320.300,355577.900,118106.400,0.000
346064.700,367735.700,465855.400,474082.300,464521.500,131598.700,353921.700,117353.500,0.000
344294.000,365952.900,463763.200,471777.300,462445.800,130791.400,352184.300,116655.900,0.000
342611.300,364243.800,461639.100,469247.000,460329.300,130065.900,350438.200,116114.600,0.000
341034.100,362568.300,459489.900,466972.100,458174.900,129440.800,348742.500,115615.600,0.000
332933.900,353554.000,454268.300,461953.200,452948.000,126658.300,337128.300,113765.100,0.000
312110.800,330319.200,443083.100,450990.000,441768.300,119706.400,306128.900,109436.600,0.000
287264.800,302581.000,429947.800,437851.400,428645.900,111660.500,268709.700,104484.700,0.000
267897.000,280911.700,419234.000,426943.300,417941.800,105735.900,239083.900,100764.300,0.000
255121.200,266580.700,411605.700,419128.400,410315.200,101955.600,219323.200,98282.790,0.000
248978.700,259728.200,407373.900,414875.200,406080.900,99908.230,210250.000,96863.370,0.000
248484.400,259280.400,406118.600,413762.100,404825.500,99335.990,210530.000,96383.310,0.000
250178.300,261300.300,405935.800,413726.300,404648.200,99576.020,214241.200,96390.090,0.000
250094.200,261300.400,404727.100,412485.400,403447.300,99575.570,214748.100,96202.950,0.000
247326.200,258288.000,402131.900,409672.600,400856.900,98792.750,210829.500,95535.980,0.000
244285.300,254982.300,399480.000,406842.400,398204.700,97689.700,206699.200,94728.590,0.000
243089.100,253731.200,397823.300,405261.500,396546.000,96991.950,205765.700,94199.030,0.000
242766.100,253459.600,396649.500,404329.100,395374.600,96573.610,206381.000,93823.010,0.000
240875.900,251518.600,394798.600,402559.300,393531.600,95634.140,204757.400,93140.230,0.000
237263.400,247738.400,392118.600,399650.300,390859.400,94129.830,200519.800,92156.770,0.000
234420.900,244768.000,389598.100,396849.500,388340.300,93010.130,197159.300,91395.770,0.000
233979.400,244326.400,387960.200,395235.200,386699.000,92837.610,197097.300,91117.370,0.000
234518.800,244907.100,386738.000,394306.700,385476.700,92999.840,198475.400,90952.920,0.000
233591.900,243946.000,385000.100,392724.500,383746.100,92543.800,197871.400,90423.500,0.000
230938.500,241190.300,382599.700,390099.000,381355.100,91407.730,194832.500,89574.510,0.000
228559.400,238731.100,380264.700,387426.500,379022.900,90402.550,192103.700,88865.050,0.000
227861.700,238011.000,378549.700,385695.800,377304.000,90077.600,191697.400,88522.020,0.000
227902.600,238037.600,377146.500,384606.300,375899.100,90043.660,192373.400,88264.630,0.000
226888.000,236973.500,375395.000,383054.100,374154.400,89577.220,191635.800,87728.310,0.000
224599.600,234621.000,373175.400,380623.600,371945.100,88588.980,189116.600,86956.000,0.000
222490.400,232466.000,370984.300,378071.700,369757.800,87669.480,186787.000,86298.880,0.000
221605.400,231544.600,369213.400,376257.100,367982.900,87257.040,186123.200,85920.130,0.000
221291.100,231178.300,367670.700,375024.200,366437.800,87096.090,186279.200,85600.870,0.000
220258.000,230087.200,365915.200,373487.500,364688.400,86644.820,185487.600,85071.520,0.000
218314.500,228108.300,363850.500,371232.500,362634.100,85797.130,183443.000,84371.680,0.000
216455.300,226227.900,361784.900,368808.100,360573.000,84961.740,181473.300,83760.590,0.000
215424.000,225150.100,359976.100,366936.900,358760.700,84480.700,180608.700,83350.230,0.000
214811.500,224459.500,358324.300,365574.800,357106.100,84209.050,180331.800,82977.890,0.000
213754.100,223338.800,356566.000,364036.800,355353.400,83762.730,179483.900,82455.230,0.000
212090.800,221659.600,354626.800,361931.400,353424.300,83029.910,177821.700,81817.410,0.000
210442.300,220006.100,352666.700,359631.900,351469.000,82269.880,176151.600,81245.450,0.000
209301.100,218811.600,350835.500,357727.400,349634.900,81738.670,175136.100,80809.350,0.000
208450.300,217866.200,349103.200,356254.300,347899.900,81376.380,174514.700,80394.300,0.000
207370.300,216720.200,347344.700,354704.800,346146.500,80929.870,173616.500,79878.820,0.000
205930.100,215276.500,345505.100,352724.200,344316.400,80289.220,172255.000,79293.100,0.000
204455.800,213806.400,343632.200,350542.500,342448.400,79595.230,170828.700,78753.770,0.000
203237.100,212530.400,341791.900,348624.100,340605.900,79029.890,169706.500,78297.740,0.000
202203.100,211393.200,340004.400,347059.700,338816.200,78596.080,168821.200,77849.770,0.000
201103.300,210226.500,338248.600,345493.100,337064.900,78145.970,167879.900,77341.670,0.000
199835.000,208961.300,336486.300,343614.200,335311.300,77576.980,166746.500,76798.640,0.000
198500.600,207635.400,334684.100,341540.400,333514.100,76939.330,165512.400,76286.020,0.000
197232.100,206307.600,332845.600,339623.300,331674.100,76353.300,164321.000,75815.520,0.000
196064.200,205033.700,331024.800,337987.500,329851.600,75865.510,163243.300,75343.550,0.000
194948.300,203851.700,329274.700,336402.000,328105.400,75409.950,162266.900,74842.930,0.000
193807.700,202716.500,327570.900,334604.400,326409.600,74894.800,161299.200,74334.050,0.000
192582.700,201500.300,325825.300,332626.700,324668.800,74304.080,160212.000,73842.900,0.000
191287.300,200145.300,323997.200,330722.900,322840.100,73708.270,158981.800,73362.860,0.000
190027.800,198781.200,322161.400,329034.500,321003.100,73182.050,157772.600,72874.770,0.000
188900.000,197589.200,320419.700,327430.700,319264.900,72720.410,156769.400,72381.570,0.000
187850.200,196543.700,318759.400,325696.800,317611.800,72244.090,155915.700,71899.380,0.000
186708.100,195408.200,317058.500,323803.000,315915.600,71691.590,154936.300,71425.250,0.000
185403.900,194045.300,315247.400,321921.300,314104.500,71094.520,153691.800,70939.970,0.000
184088.200,192629.500,313411.200,320197.500,312267.700,70543.200,152401.500,70442.420,0.000
181671.300,189890.800,311541.600,318439.000,310401.600,69964.880,148715.800,69937.300,0.000
176790.500,184243.700,309498.900,316339.900,308365.500,69071.140,139999.700,69364.430,0.000
170577.600,177100.100,307314.800,313999.700,306186.400,67660.030,129149.300,68616.630,0.000
164687.700,170435.100,305104.400,311725.100,303977.300,65938.980,119716.800,67733.340,0.000
160131.100,165328.600,303008.600,309710.100,301881.800,64575.560,112867.400,66975.590,0.000
157826.400,162770.000,301198.500,307985.500,300074.700,64044.360,109570.700,66528.750,0.000
157402.100,162368.600,299644.600,306389.400,298526.000,64001.540,109366.100,66254.160,0.000
157180.700,162254.700,298095.900,304717.900,296981.300,63713.500,109872.200,65870.050,0.000
155844.700,160905.400,296359.600,302924.300,295246.100,62919.730,108877.300,65286.240,0.000
153742.300,158657.400,294518.600,301137.200,293405.800,62045.940,106510.200,64679.880,0.000
152115.900,156908.000,292791.800,299472.700,291681.800,61548.010,104569.100,64228.900,0.000
151359.600,156148.400,291229.300,297879.500,290124.000,61320.990,103945.700,63884.340,0.000
150635.900,155457.700,289655.900,296212.300,288554.600,60928.700,103577.500,63471.030,0.000
149106.600,153866.800,287921.000,294427.300,286821.500,60195.340,102080.000,62920.800,0.000
147057.000,151665.500,286103.500,292640.900,285005.300,59398.660,99663.710,62348.390,0.000
145430.000,149921.500,284395.800,290975.200,283300.400,58858.400,97751.750,61882.020,0.000
144530.800,149011.100,282839.500,289397.100,281748.200,58527.290,96999.890,61500.520,0.000
143718.500,148219.000,281277.800,287766.200,280189.900,58121.710,96505.600,61088.610,0.000
142316.600,146760.700,279576.100,286021.300,278490.200,57496.280,95126.050,60585.660,0.000
140491.000,144806.000,277801.000,284258.900,276716.600,56799.750,93001.220,60053.360,0.000
138940.600,143154.700,276118.700,282601.100,275036.900,56242.980,91245.650,59580.630,0.000
137929.300,142126.500,274566.200,281033.300,273488.200,55830.820,90386.580,59171.260,0.000
137212.800,141410.100,273016.700,279434.600,271942.300,55556.250,89867.270,58818.840,0.000
136491.100,140612.400,271358.700,277739.600,270286.800,55421.090,88959.540,58506.310,0.000
135468.900,139457.100,269631.900,276010.900,268561.900,55103.860,87569.140,58089.360,0.000
134112.800,138019.200,267962.800,274351.900,266895.300,54339.580,86248.200,57482.690,0.000
132797.000,136721.200,266396.900,272775.200,265332.800,53431.290,85477.680,56848.200,0.000
131827.200,135794.400,264846.500,271191.500,263785.600,52868.860,85042.270,56389.020,0.000
131062.200,135005.800,263217.700,269531.300,262159.400,52682.710,84364.550,56082.750,0.000
130142.600,134003.600,261535.600,267836.600,260479.500,52444.120,83277.260,55728.800,0.000
128971.600,132773.200,259900.300,266200.100,258846.700,51861.890,82175.280,55222.370,0.000
127797.400,131602.900,258347.200,264639.200,257296.600,51134.110,81421.700,54673.360,0.000
126841.800,130666.700,256804.500,263075.300,255757.000,50624.650,80876.780,54233.690,0.000
126016.400,129815.000,255198.200,261442.300,254153.500,50367.380,80148.490,53893.850,0.000
125080.600,128813.800,253550.400,259774.200,252508.100,50064.930,79139.200,53517.040,0.000
123973.300,127657.500,251941.400,258155.100,250901.500,49518.890,78131.660,53034.250,0.000
122554.800,126197.800,250395.500,256603.200,249358.400,48826.650,76839.020,52515.950,0.000
120495.200,124046.900,248848.600,255043.800,247814.400,48049.760,74538.780,51998.790,0.000
117932.300,121357.500,247243.300,253415.900,246212.100,47147.720,71515.010,51446.180,0.000
115518.800,118822.900,245615.700,251763.100,244587.300,46354.770,68652.190,50942.910,0.000
113820.400,117019.400,244040.700,250171.600,243014.700,45956.950,66542.910,50597.410,0.000
112835.000,115955.800,242525.400,248650.800,241502.000,45808.200,65315.210,50327.230,0.000
112027.800,115099.200,241005.600,247124.500,239985.000,45511.720,64532.610,49962.210,0.000
110920.100,113957.700,239435.500,245534.900,238417.800,44910.990,63616.170,49459.590,0.000
109564.400,112562.000,237844.700,243915.600,236829.700,44245.660,62393.880,48947.150,0.000
108330.300,111271.900,236290.200,242340.200,235277.600,43792.980,61130.460,48542.290,0.000
107351.900,110231.500,234779.300,240823.700,233769.200,43507.470,60074.550,48204.890,0.000
106421.000,109246.400,233268.400,239310.000,232261.000,43148.240,59162.640,47822.440,0.000
105298.800,108079.800,231725.700,237750.400,230721.500,42606.580,58157.000,47360.520,0.000
104023.700,106758.700,230170.700,236165.700,229169.700,42022.790,56973.200,46895.790,0.000
102735.600,105422.800,228639.600,234611.000,227641.100,41501.930,55736.040,46478.270,0.000
101539.400,104195.200,227139.400,233104.700,226143.200,41058.210,54658.110,46108.290,0.000
100716.500,103354.400,225652.100,231616.800,224658.500,40884.020,53951.730,45850.060,0.000
100327.100,102939.500,224156.600,230106.200,223165.800,40995.510,53557.570,45688.020,0.000
99884.290,102459.800,222645.100,228564.600,221657.000,40964.510,53098.440,45437.560,0.000
98941.050,101483.500,221128.400,227022.600,220142.800,40459.540,52309.340,44980.170,0.000
97658.090,100181.200,219621.700,225508.800,218638.500,39691.520,51337.290,44426.410,0.000
96559.550,99069.750,218128.300,224015.300,217147.800,39124.840,50520.180,43970.460,0.000
95850.130,98342.130,216639.700,222513.000,215662.100,38886.110,49955.270,43648.630,0.000
95211.590,97677.930,215148.100,220992.000,214173.300,38666.910,49410.520,43323.550,0.000
94281.820,96721.220,213655.000,219473.000,212682.600,38185.570,48653.010,42886.790,0.000
93122.850,95538.590,212167.800,217977.600,211197.800,37543.390,47742.390,42392.530,0.000
92085.700,94480.750,210690.800,216500.300,209723.500,37037.140,46928.140,41963.160,0.000
91326.160,93701.720,209221.300,215018.000,208256.800,36749.890,46319.790,41622.570,0.000
90634.170,92989.870,207752.800,213521.300,206791.100,36477.630,45763.870,41280.990,0.000
89748.530,92081.780,206282.400,212025.200,205323.200,36032.600,45059.500,40866.310,0.000
88690.070,90997.520,204813.800,210547.400,203856.900,35475.960,44211.550,40410.990,0.000
87692.930,89974.930,203353.100,209085.300,202398.700,34997.260,43404.680,39992.780,0.000
86882.120,89144.130,201901.700,207621.600,200950.200,34655.510,42758.240,39630.280,0.000
86138.180,88384.550,200454.600,206148.000,199505.900,34332.350,42185.320,39272.270,0.000
85283.920,87511.160,199006.000,204674.500,198059.800,33913.690,41519.000,38874.720,0.000
84308.410,86508.620,197556.600,203214.700,196612.800,33426.670,40724.980,38451.810,0.000
83349.750,85521.410,196113.000,201768.400,195171.700,32973.700,39931.890,38044.930,0.000
82503.710,84654.980,194679.900,200323.200,193741.300,32592.710,39259.080,37667.540,0.000
81720.280,83858.630,193253.300,198871.900,192317.600,32231.360,38670.770,37298.010,0.000
80890.660,83012.180,191825.800,197420.400,190892.500,31833.390,38032.740,36914.430,0.000
79982.390,82076.420,190395.800,195979.100,189464.800,31400.960,37285.010,36517.560,0.000
79059.010,81122.780,188970.100,194549.000,188041.700,30970.050,36510.030,36121.150,0.000
78190.650,80233.770,187555.200,193122.200,186629.600,30561.810,35820.770,35734.300,0.000
77378.620,79410.350,186148.400,191692.400,185225.500,30172.850,35219.310,35357.290,0.000
76567.950,78584.330,184741.200,190262.500,183820.800,29790.560,34601.570,34984.910,0.000
75712.940,77701.920,183330.700,188839.800,182412.700,29399.570,33892.790,34608.500,0.000
74821.430,76779.490,181923.500,187426.600,181008.000,28987.410,33138.510,34221.720,0.000
73941.700,75878.970,180527.000,186018.000,179614.100,28562.140,32441.200,33830.070,0.000
73110.910,75037.440,179139.300,184609.000,178229.100,28154.820,31829.420,33449.110,0.000
72314.860,74226.870,177751.900,183200.200,176844.300,27784.200,31225.870,33085.680,0.000
71501.130,73386.260,176361.000,181796.400,175455.800,27423.570,30549.370,32725.060,0.000
70638.040,72492.420,174972.600,180400.400,174069.900,27027.140,29817.110,32347.120,0.000
69755.870,71589.420,173594.500,179010.000,172694.300,26593.230,29118.640,31954.450,0.000
68914.870,70737.690,172225.500,177621.300,171328.000,26175.320,28499.650,31572.530,0.000
68130.280,69938.930,170857.400,176233.100,169962.500,25813.240,27905.790,31216.300,0.000
67347.870,69130.420,169486.100,174848.300,168593.500,25473.900,27255.730,30867.620,0.000
66509.930,68262.470,168116.800,173469.800,167226.700,25090.570,26545.770,30497.750,0.000
65632.340,67364.130,166757.000,172097.600,165869.500,24654.670,25851.600,30107.090,0.000
64788.320,66508.940,165406.300,170728.600,164521.500,24232.490,25228.500,29726.620,0.000
64013.020,65719.470,164057.200,169360.600,163174.900,23876.620,24641.210,29376.270,0.000
63253.920,64935.230,162705.300,167994.800,161825.400,23551.390,24012.620,29036.490,0.000
62438.130,64090.540,161355.300,166634.200,160477.800,23178.900,23324.510,28674.020,0.000
61570.450,63202.270,160013.900,165280.200,159139.000,22746.080,22638.800,28287.630,0.000
60729.230,62349.180,158681.300,163930.500,157809.000,22324.610,22014.540,27910.530,0.000
59961.820,61567.390,157350.800,162582.200,156481.000,21973.330,21431.820,27565.100,0.000
59219.820,60801.290,156018.300,161235.300,155150.900,21656.740,20820.610,27231.900,0.000
58423.520,59977.430,154687.400,159892.900,153822.500,21293.240,20153.450,26876.250,0.000
57569.600,59103.130,153364.500,158557.100,152502.100,20867.180,19479.190,26495.780,0.000
56735.780,58256.610,152049.800,157226.300,151190.000,20450.180,18856.460,26123.510,0.000
55975.530,57481.620,150737.700,155897.300,149880.300,20102.400,18277.210,25782.350,0.000
55245.980,56729.010,149424.300,154569.400,148569.400,19790.470,17680.120,25454.020,0.000
54466.880,55923.790,148112.700,153245.300,147260.200,19434.470,17032.660,25104.700,0.000
53629.290,55066.110,146808.200,151927.600,145958.200,19017.700,16371.900,24731.280,0.000
52806.320,54229.570,145511.300,150615.400,144663.800,18607.890,15753.050,24364.870,0.000
52052.960,53461.060,144217.300,149305.400,143372.300,18263.000,15176.840,24027.590,0.000
51332.590,52718.630,142922.900,147996.400,142080.300,17952.960,14591.370,23702.970,0.000
50568.800,51930.170,141630.400,146690.700,140790.200,17603.310,13962.230,23359.550,0.000
49749.110,51090.680,140344.200,145391.200,139506.500,17197.420,13316.230,22993.870,0.000
48939.470,50266.660,139065.000,144097.300,138229.800,16796.620,12703.220,22634.020,0.000
48193.070,49504.700,137789.000,142806.000,136956.300,16454.330,12130.110,22300.430,0.000
47479.690,48770.210,136513.400,141515.800,135683.100,16144.470,11554.400,21978.780,0.000
45643.060,46803.050,135250.000,140238.600,134422.200,15481.130,9307.635,21543.810,0.000
41576.400,42408.030,134012.200,138987.300,133187.300,14128.330,3828.193,20901.590,0.000
36837.120,37284.370,132794.500,137755.400,131972.700,12692.540,-2674.885,20274.630,0.000
33351.760,33484.190,131588.000,136534.000,130768.700,11932.200,-7706.232,19913.550,0.000
31266.140,31160.270,130377.500,135308.600,129560.500,11713.830,-10988.480,19718.200,0.000
30050.170,29817.610,129141.700,134058.500,128327.100,11445.020,-12687.020,19429.530,0.000
29215.880,28986.250,127880.000,132783.000,127067.900,10858.810,-13162.340,18969.940,0.000
28500.490,28334.830,126617.200,131506.500,125807.700,10224.500,-13182.300,18502.020,0.000
27778.900,27633.800,125375.800,130251.000,124568.900,9866.566,-13551.490,18179.370,0.000
26962.790,26766.780,124150.800,129011.600,123346.300,9699.181,-14464.320,17943.750,0.000
26072.810,25816.350,122923.100,127769.800,122121.000,9413.252,-15449.880,17642.460,0.000
25263.390,24989.270,121685.500,126518.600,120885.800,8923.630,-16036.960,17234.020,0.000
24477.200,24209.380,120442.500,125262.000,119645.100,8286.591,-16410.340,16748.850,0.000
23326.100,23050.630,119198.000,124003.600,118403.200,7439.659,-17178.010,16183.150,0.000
21829.540,21530.730,117959.100,122750.200,117166.900,6506.466,-18387.980,15608.070,0.000
20655.320,20339.810,116735.600,121512.300,115945.900,5892.395,-19346.020,15184.220,0.000
20215.400,19899.340,115528.100,120291.000,114740.700,5755.842,-19596.570,14951.970,0.000
20078.080,19762.290,114325.900,119075.400,113540.600,5756.876,-19552.690,14759.080,0.000
19536.220,19204.980,113119.100,117855.000,112336.300,5476.594,-19921.820,14446.060,0.000
18506.500,18149.100,111910.400,116631.900,111130.000,4924.556,-20785.220,14034.630,0.000
17547.020,17170.750,110708.900,115416.000,109931.000,4459.875,-21576.020,13671.330,0.000
17052.630,16670.960,109517.700,114211.000,108742.100,4279.106,-21893.970,13420.450,0.000
16760.570,16375.040,108330.400,113010.400,107557.000,4178.624,-22004.340,13189.620,0.000
16172.500,15772.640,107140.500,111807.200,106369.500,3868.349,-22410.330,12869.280,0.000
15233.810,14812.620,105950.400,110602.800,105181.800,3363.283,-23169.020,12479.140,0.000
14353.050,13915.590,104766.800,109404.800,104000.600,2931.094,-23872.920,12128.740,0.000
13815.990,13370.970,103592.000,108216.300,102828.200,2715.213,-24236.400,11864.830,0.000
13432.210,12980.250,102421.200,107032.300,101659.600,2563.822,-24446.880,11618.170,0.000
12843.430,12377.760,101249.400,105847.300,100490.200,2263.000,-24857.990,11307.410,0.000
12006.960,11523.490,100078.300,104662.100,99321.480,1820.750,-25512.810,10945.690,0.000
11205.330,10707.380,98912.900,103482.300,98158.420,1426.943,-26135.970,10611.200,0.000
10306.830,9787.279,97760.240,102316.000,97008.130,1129.776,-26939.790,10333.310,0.000
9022.809,8452.467,96628.930,101171.700,95879.240,930.645,-28355.880,10131.850,0.000
7806.246,7153.601,95518.150,100047.800,94770.840,1001.556,-29963.680,10060.290,0.000
6958.401,6206.436,94412.190,98928.000,93667.190,1239.538,-31306.020,10034.960,0.000
6135.713,5296.134,93290.860,97792.480,92548.090,1206.862,-32440.110,9859.781,0.000
5132.080,4248.924,92147.670,96635.540,91407.140,726.487,-33372.550,9478.581,0.000
4169.568,3283.712,90997.970,95472.750,90259.660,119.808,-34015.700,9050.968,0.000
3525.886,2639.593,89861.190,94322.830,89125.090,-209.869,-34417.860,8751.764,0.000
3083.711,2172.203,88739.110,93186.930,88005.230,-283.605,-34824.250,8559.246,0.000
2516.712,1564.514,87619.470,92053.190,86887.840,-425.523,-35413.410,8329.223,0.000
1712.664,730.279,86493.910,90914.050,85764.590,-808.637,-36113.200,7994.707,0.000
870.815,-123.041,85367.600,89774.810,84640.630,-1271.500,-36733.270,7633.444,0.000
89.744,-905.238,84247.320,88641.510,83522.710,-1675.521,-37268.460,7310.409,0.000
-759.240,-1748.402,83133.910,87514.440,82411.660,-2058.191,-37864.590,7014.868,0.000
-1489.485,-2476.410,82032.700,86399.260,81312.750,-2254.740,-38428.730,6810.780,0.000
-1811.199,-2813.889,80943.670,85296.670,80225.930,-2141.117,-38750.060,6725.123,0.000
-1947.029,-2976.959,79851.910,84191.930,79136.340,-2034.081,-38905.560,6603.429,0.000
-2378.563,-3426.460,78746.360,83073.430,78033.020,-2305.136,-39180.020,6300.910,0.000
-3207.506,-4256.521,77635.190,81948.820,76924.180,-2879.619,-39691.810,5880.251,0.000
-4055.157,-5103.110,76535.130,80835.050,75826.450,-3348.931,-40265.550,5526.589,0.000
-4590.007,-5650.620,75450.260,79736.770,74743.820,-3509.405,-40688.730,5308.519,0.000
-4930.203,-6013.149,74368.940,78642.530,73664.700,-3583.101,-40973.530,5111.703,0.000
-5420.630,-6518.662,73281.020,77541.710,72579.010,-3869.511,-41297.520,4812.758,0.000
-6157.534,-7257.396,72190.770,76438.190,71491.060,-4347.662,-41753.930,4440.189,0.000
-6904.729,-8005.357,71109.530,75343.410,70412.110,-4747.754,-42254.960,4116.722,0.000
-7446.770,-8559.755,70039.970,74260.550,69344.800,-4934.720,-42674.890,3887.351,0.000
-7858.279,-8991.335,68973.770,73181.450,68280.800,-5063.692,-43007.930,3671.606,0.000
-8360.773,-9507.719,67903.740,72098.570,67212.990,-5339.123,-43347.720,3384.525,0.000
-9019.803,-10169.920,66832.900,71014.540,66144.380,-5746.535,-43755.800,3045.909,0.000
-9693.391,-10846.050,65769.090,69937.360,65082.820,-6105.958,-44201.160,2738.860,0.000
-10248.590,-11413.090,64714.320,68869.390,64030.250,-6327.418,-44619.760,2494.052,0.000
-10721.830,-11904.100,63663.050,67805.270,62981.180,-6508.545,-44991.030,2259.830,0.000
-11236.250,-12431.230,62610.490,66739.900,61930.820,-6777.510,-45344.340,1981.868,0.000
-11833.510,-13032.860,61558.450,65674.830,60881.020,-7127.111,-45716.040,1671.765,0.000
-12690.460,-13922.300,60513.820,64616.990,59838.680,-7580.584,-46454.750,1320.472,0.000
-14062.520,-15381.630,59479.260,63569.380,58806.530,-8251.487,-47911.540,880.433,0.000
-15589.670,-17007.610,58455.090,62532.390,57784.720,-8918.433,-49595.750,459.087,0.000
-16598.210,-18099.690,57445.730,61510.300,56777.550,-9163.853,-50825.500,227.661,0.000
-17036.960,-18615.010,56444.330,60495.980,55778.200,-9057.254,-51547.840,129.832,0.000
-17428.900,-19062.200,55431.850,59470.400,54767.730,-9095.933,-52066.520,-49.322,0.000
-18184.560,-19831.450,54401.220,58426.750,53739.170,-9555.802,-52631.060,-404.342,0.000
-19158.260,-20788.730,53367.440,57380.160,52707.530,-10177.950,-53238.520,-807.386,0.000
-19926.680,-21549.040,52349.130,56349.070,51691.350,-10550.290,-53760.200,-1092.284,0.000
-20410.030,-22051.390,51345.410,55332.430,50689.750,-10661.580,-54190.700,-1276.648,0.000
-20910.060,-22581.380,50341.310,54315.300,49687.860,-10837.180,-54654.140,-1502.135,0.000
-21676.110,-23363.790,49328.920,53289.990,48677.800,-11278.140,-55236.880,-1837.965,0.000
-22605.070,-24293.860,48316.370,52264.810,47667.640,-11831.380,-55884.650,-2207.511,0.000
-23403.790,-25098.460,47315.300,51251.300,46668.920,-12225.690,-56477.090,-2502.838,0.000
-24011.600,-25726.300,46324.200,50247.750,45680.090,-12448.390,-56993.540,-2733.510,0.000
-24608.980,-26346.690,45333.580,49244.600,44691.740,-12693.970,-57506.260,-2983.102,0.000
-25348.580,-27098.040,44339.300,48237.660,43699.670,-13081.950,-58073.840,-3292.528,0.000
-26182.460,-27933.850,43346.130,47231.800,42708.690,-13530.820,-58677.360,-3620.283,0.000
-27060.920,-28810.370,42357.350,46230.320,41722.120,-13992.270,-59302.080,-3943.062,0.000
-28010.630,-29748.090,41372.050,45232.330,40739.070,-14492.750,-59939.310,-4268.588,0.000
-28737.830,-30459.520,40398.000,44245.610,39767.200,-14772.970,-60407.980,-4489.507,0.000
-28949.680,-30673.620,39439.380,43274.410,38810.670,-14633.810,-60568.710,-4542.356,0.000
-28950.400,-30697.900,38482.070,42304.610,37855.410,-14421.470,-60620.760,-4595.071,0.000
-29289.040,-31059.630,37511.330,41321.390,36886.770,-14604.350,-60870.750,-4838.229,0.000
-30052.630,-31827.550,36531.800,40329.360,35909.420,-15156.020,-61347.230,-5231.474,0.000
-30805.810,-32573.980,35560.950,39345.990,34940.730,-15623.050,-61802.000,-5567.497,0.000
-31204.220,-32975.130,34606.270,38378.840,33988.140,-15737.960,-62061.660,-5746.746,0.000
-31413.310,-33201.730,33657.610,37417.740,33041.540,-15724.750,-62233.370,-5884.383,0.000
-31817.930,-33623.790,32702.700,36450.420,32088.720,-15938.820,-62520.880,-6130.825,0.000
-32493.450,-34303.550,31743.230,35478.550,31131.400,-16390.380,-62945.600,-6473.075,0.000
-33153.130,-34959.820,30790.720,34513.660,30181.010,-16779.850,-63347.150,-6774.529,0.000
-33569.730,-35380.110,29850.310,33560.890,29242.690,-16927.120,-63618.440,-6968.239,0.000
-33856.990,-35681.810,28915.090,32613.320,28309.530,-16984.980,-63833.680,-7132.745,0.000
-34270.710,-36109.990,27976.590,31662.500,27373.110,-17194.370,-64122.130,-7370.299,0.000
-34861.300,-36705.780,27035.770,30709.380,26434.390,-17565.180,-64494.270,-7673.621,0.000
-35446.570,-37290.860,26100.270,29761.610,25500.990,-17902.240,-64852.080,-7953.169,0.000
-35883.280,-37732.110,25173.720,28822.790,24576.520,-18086.080,-65134.800,-8163.764,0.000
-36238.200,-38098.770,24251.900,27888.740,23656.770,-18208.320,-65386.560,-8352.953,0.000
-36661.870,-38534.270,23329.430,26954.040,22736.360,-18417.190,-65676.560,-8584.269,0.000
-37184.970,-39063.230,22406.580,26019.000,21815.580,-18723.270,-66007.080,-8855.667,0.000
-37709.080,-39589.710,21487.820,25088.080,20898.880,-19016.220,-66329.390,-9116.032,0.000
-38158.250,-40044.100,20575.480,24163.570,19988.580,-19226.290,-66618.880,-9338.259,0.000
-38563.300,-40458.710,19667.440,23243.380,19082.600,-19397.750,-66896.610,-9545.813,0.000
-38993.160,-40898.250,18760.740,22324.550,18177.960,-19606.020,-67186.090,-9771.696,0.000
-39462.880,-41374.300,17855.210,21406.930,17274.480,-19861.390,-67483.630,-10017.540,0.000
-39937.880,-41853.640,16952.850,20492.510,16374.170,-20118.710,-67777.580,-10261.810,0.000
-40393.430,-42314.920,16054.940,19582.540,15478.310,-20346.830,-68070.010,-10491.530,0.000
-40833.630,-42762.950,15160.970,18676.520,14586.370,-20554.550,-68364.760,-10712.070,0.000
-41266.520,-43203.810,14269.830,17773.360,13697.260,-20762.230,-68652.060,-10933.260,0.000
-41695.260,-43639.170,13381.030,16872.580,12810.480,-20979.240,-68924.150,-11159.160,0.000
-42131.730,-44081.460,12494.730,15974.330,11926.210,-21208.510,-69195.910,-11390.100,0.000
-42588.560,-44544.380,11611.430,15079.080,11044.940,-21447.710,-69488.070,-11623.770,0.000
-43051.040,-45013.380,10731.770,14187.440,10167.300,-21680.430,-69792.300,-11852.610,0.000
-43484.110,-45453.090,9855.981,13299.720,9293.541,-21887.290,-70076.020,-12069.650,0.000
-43882.240,-45857.990,8983.389,12415.250,8422.964,-22076.410,-70328.920,-12280.370,0.000
-44289.190,-46271.770,8112.869,11532.890,7554.456,-22284.190,-70583.630,-12500.430,0.000
-44743.200,-46732.100,7244.326,10652.500,6687.924,-22528.760,-70872.920,-12735.120,0.000
-45536.990,-47550.730,6391.252,9787.534,5836.806,-22782.770,-71629.130,-12957.180,0.000
-46767.150,-48851.500,5570.077,8954.403,5017.454,-22883.950,-73159.750,-13092.180,0.000
-47897.330,-50085.710,4765.093,8137.502,4214.261,-22766.230,-74828.270,-13146.680,0.000
-48906.990,-51192.960,3944.269,7304.857,3395.332,-22835.670,-76246.980,-13312.470,0.000
-50210.260,-52550.880,3096.171,6444.988,2549.251,-23437.110,-77565.520,-13708.740,0.000
-51500.820,-53843.660,2236.152,5573.293,1691.366,-24206.920,-78560.530,-14153.190,0.000
-52117.300,-54441.440,1387.018,4712.629,844.381,-24533.240,-78905.050,-14393.000,0.000
-52084.710,-54406.420,552.999,3867.061,12.353,-24392.320,-78799.760,-14446.830,0.000
-52119.670,-54461.550,-278.542,3023.839,-817.340,-24312.970,-78838.580,-14547.880,0.000
-52713.020,-55074.870,-1117.156,2173.493,-1654.055,-24649.550,-79316.020,-14828.550,0.000
-53709.830,-56071.230,-1963.818,1315.091,-2498.682,-25315.630,-80005.030,-15240.970,0.000
-54775.020,-57115.340,-2816.800,450.397,-3349.556,-26122.480,-80611.050,-15709.040,0.000
-55782.390,-58090.820,-3668.479,-412.896,-4199.110,-26916.110,-81108.720,-16163.660,0.000
-56624.560,-58908.120,-4505.657,-1261.602,-5034.202,-27476.210,-81558.830,-16506.910,0.000
-57141.440,-59423.680,-5323.947,-2091.406,-5850.499,-27672.990,-81912.790,-16696.090,0.000
-57360.730,-59660.600,-6134.132,-2913.135,-6658.770,-27663.700,-82108.080,-16812.840,0.000
-57541.840,-59857.160,-6949.231,-3739.760,-7471.961,-27741.790,-82210.070,-16978.980,0.000
-57903.940,-60220.180,-7769.490,-4571.483,-8290.268,-28012.060,-82365.160,-17222.500,0.000
-58400.130,-60711.540,-8584.702,-5398.113,-9103.500,-28317.050,-82632.050,-17467.870,0.000
-58828.920,-61144.560,-9389.041,-6213.875,-9905.892,-28485.610,-82926.050,-17651.030,0.000
-59113.010,-61442.550,-10188.010,-7024.296,-10702.970,-28554.570,-83144.340,-17799.860,0.000
-59377.860,-61718.410,-10989.790,-7837.513,-11502.860,-28690.190,-83297.190,-17984.470,0.000
-59760.400,-62101.490,-11794.240,-8653.348,-12305.390,-28954.180,-83478.570,-18220.240,0.000
-60229.610,-62567.460,-12594.130,-9464.584,-13103.340,-29236.710,-83733.970,-18454.820,0.000
-60646.480,-62987.950,-13385.360,-10267.130,-13892.630,-29418.710,-84007.060,-18643.750,0.000
-60954.090,-63306.410,-14171.670,-11064.780,-14677.040,-29523.270,-84223.810,-18805.230,0.000
-61237.660,-63599.170,-14958.780,-11863.200,-15462.250,-29665.080,-84388.850,-18987.600,0.000
-61597.250,-63960.820,-15746.840,-12662.530,-16248.390,-29892.740,-84569.560,-19204.190,0.000
-62021.130,-64383.960,-16531.190,-13458.120,-17030.820,-30139.470,-84802.860,-19422.810,0.000
-62418.110,-64784.570,-17309.000,-14247.160,-17806.730,-30325.680,-85053.120,-19613.550,0.000
-62742.980,-65117.850,-18082.460,-15031.850,-18578.300,-30458.960,-85267.130,-19784.990,0.000
-63043.860,-65426.280,-18855.170,-15815.760,-19349.130,-30608.370,-85442.880,-19966.240,0.000
-63387.300,-65772.840,-19627.420,-16599.180,-20119.490,-30808.970,-85624.270,-20167.820,0.000
-63774.930,-66161.660,-20396.570,-17379.480,-20886.750,-31027.150,-85839.810,-20373.200,0.000
-64154.000,-66544.330,-21160.860,-18154.910,-21649.160,-31215.340,-86070.350,-20564.330,0.000
-64490.240,-66887.010,-21921.280,-18926.460,-22407.720,-31370.210,-86280.300,-20742.710,0.000
-64803.540,-67206.500,-22679.740,-19696.030,-23164.320,-31525.380,-86463.310,-20922.540,0.000
-65133.590,-67540.420,-23436.650,-20463.990,-23919.360,-31704.640,-86644.540,-21111.830,0.000
-65491.290,-67900.810,-24190.920,-21229.290,-24671.760,-31899.460,-86845.160,-21305.920,0.000
-65853.700,-68266.800,-24941.610,-21991.020,-25420.590,-32087.290,-87058.560,-21496.050,0.000
-66196.050,-68614.060,-25688.820,-22749.260,-26165.950,-32257.330,-87263.410,-21678.690,0.000
-66517.410,-68940.520,-26433.190,-23504.640,-26908.460,-32416.590,-87450.640,-21856.820,0.000
-66836.450,-69263.950,-27175.180,-24257.600,-27648.590,-32579.600,-87630.940,-22036.240,0.000
-67169.970,-69601.220,-27914.840,-25008.210,-28386.390,-32755.820,-87819.160,-22220.840,0.000
-67517.100,-69951.930,-28651.890,-25756.180,-29121.590,-32941.480,-88017.850,-22408.860,0.000
-67861.180,-70299.770,-29385.790,-26500.980,-29853.640,-33121.210,-88216.800,-22593.450,0.000
-68186.700,-70629.520,-30116.230,-27242.320,-30582.250,-33282.950,-88405.570,-22769.580,0.000
-68523.880,-70992.770,-30828.730,-27965.690,-31292.900,-33273.920,-88808.830,-22867.090,0.000
-69077.930,-71610.040,-31515.210,-28663.000,-31977.500,-33116.870,-89741.230,-22890.660,0.000
-70107.020,-72698.070,-32202.320,-29360.870,-32662.670,-33255.850,-91073.100,-23028.980,0.000
-71367.090,-73981.690,-32899.980,-30069.200,-33358.360,-33654.590,-92368.800,-23258.920,0.000
-72181.930,-74809.110,-33590.680,-30770.520,-34047.200,-33751.820,-93222.800,-23350.020,0.000
-72335.630,-74986.720,-34277.590,-31468.080,-34732.420,-33492.680,-93509.560,-23314.580,0.000
-72325.520,-75002.950,-34980.160,-32181.380,-35433.280,-33382.750,-93524.490,-23382.020,0.000
-72700.880,-75387.840,-35702.000,-32914.040,-36153.220,-33743.590,-93675.590,-23662.000,0.000
-73430.130,-76110.160,-36423.140,-33646.040,-36872.390,-34301.200,-94074.710,-24004.240,0.000
-74030.910,-76708.840,-37124.550,-34358.290,-37571.980,-34578.160,-94493.830,-24203.820,0.000
-74279.910,-76971.690,-37811.690,-35056.140,-38257.420,-34536.750,-94731.840,-24271.890,0.000
-74432.300,-77143.500,-38502.640,-35757.630,-38946.570,-34539.280,-94854.150,-24377.840,0.000
-74816.940,-77538.210,-39203.010,-36468.370,-39644.940,-34820.670,-95066.090,-24608.650,0.000
-75431.470,-78152.570,-39901.380,-37177.140,-40341.230,-35228.360,-95443.550,-24879.230,0.000
-75980.980,-78704.770,-40586.230,-37872.590,-41024.090,-35471.050,-95846.670,-25063.230,0.000
-76308.800,-79038.610,-41260.300,-38557.350,-41696.350,-35495.760,-96114.020,-25148.240,0.000
-76379.430,-79110.970,-41928.300,-39236.060,-42362.750,-35330.540,-96152.170,-25149.940,0.000
-76111.510,-78852.690,-42588.230,-39906.650,-43021.200,-34917.930,-95954.130,-25054.300,0.000
-75730.630,-78499.560,-43245.750,-40574.760,-43677.240,-34460.730,-95733.850,-24962.140,0.000
-75736.060,-78532.230,-43914.640,-41254.150,-44344.470,-34385.130,-95779.670,-25048.100,0.000
-76265.350,-79064.850,-44597.610,-41947.550,-45025.590,-34779.910,-96097.900,-25327.110,0.000
-76893.980,-79677.360,-45280.580,-42640.940,-45706.680,-35245.410,-96406.630,-25618.120,0.000
-77178.610,-79952.630,-45949.750,-43320.540,-46374.090,-35393.440,-96499.370,-25768.430,0.000
-77190.190,-79975.030,-46607.700,-43988.910,-47030.390,-35305.500,-96482.860,-25829.590,0.000
-77341.950,-80143.490,-47267.460,-44659.040,-47688.430,-35353.340,-96592.230,-25958.890,0.000
-77805.130,-80609.360,-47934.190,-45336.100,-48353.340,-35676.550,-96866.250,-26200.540,0.000
-78314.520,-81108.400,-48599.550,-46011.790,-49016.890,-36029.860,-97118.730,-26442.370,0.000
-78568.410,-81356.820,-49254.360,-46676.940,-49669.990,-36151.890,-97208.260,-26582.130,0.000
-78628.720,-81425.940,-49900.740,-47333.650,-50314.720,-36109.960,-97218.650,-26660.550,0.000
-78798.060,-81608.180,-50548.050,-47991.230,-50960.320,-36173.820,-97324.490,-26791.620,0.000
-79198.180,-82011.170,-51199.820,-48653.240,-51610.300,-36441.410,-97554.350,-27006.010,0.000
-79636.270,-82442.740,-51850.050,-49313.700,-52258.750,-36735.270,-97772.310,-27222.520,0.000
-79895.750,-82698.750,-52492.210,-49966.090,-52899.210,-36868.430,-97874.510,-27367.740,0.000
-80017.820,-82827.060,-53127.710,-50611.810,-53533.060,-36885.570,-97918.270,-27469.110,0.000
-80356.920,-83184.630,-53757.340,-51251.600,-54161.010,-36984.540,-98204.160,-27601.920,0.000
-81132.190,-83995.060,-54379.890,-51884.220,-54781.840,-37268.690,-98930.630,-27802.790,0.000
-82174.270,-85078.340,-55005.700,-52520.050,-55405.890,-37773.200,-99870.910,-28102.670,0.000
-83413.760,-86339.970,-55644.160,-53168.550,-56042.520,-38555.370,-100843.100,-28527.090,0.000
-84678.350,-87599.950,-56284.940,-53819.450,-56681.510,-39381.410,-101729.900,-28958.100,0.000
-85442.510,-88354.330,-56911.210,-54455.910,-57306.150,-39782.210,-102245.600,-29198.030,0.000
-85531.040,-88449.330,-57522.780,-55077.630,-57916.200,-39683.580,-102311.500,-29238.990,0.000
-85405.270,-88344.100,-58133.440,-55698.340,-58525.300,-39510.270,-102230.800,-29270.220,0.000
-85614.910,-88570.600,-58752.090,-56326.930,-59142.250,-39651.210,-102358.200,-29438.450,0.000
-86188.980,-89147.770,-59373.090,-56957.810,-59761.500,-40033.570,-102716.900,-29692.910,0.000
-86686.430,-89644.090,-59984.870,-57579.490,-60371.570,-40287.500,-103034.200,-29878.340,0.000
-86856.610,-89820.720,-60586.410,-58190.960,-60971.430,-40279.200,-103147.300,-29957.580,0.000
-86911.380,-89889.200,-61186.000,-58800.450,-61569.310,-40228.990,-103185.700,-30032.590,0.000
-87036.580,-90034.700,-61786.730,-59411.030,-62168.300,-40278.020,-103284.300,-30158.600,0.000
-87220.340,-90246.920,-62388.630,-60022.750,-62768.490,-40418.640,-103438.400,-30333.820,0.000
-87607.290,-90655.740,-62998.160,-60642.040,-63376.230,-40791.270,-103688.700,-30613.810,0.000
-88264.020,-91309.730,-63614.490,-61268.150,-63990.710,-41401.220,-104035.800,-30981.420,0.000
-88862.240,-91888.930,-64221.880,-61885.370,-64596.340,-41879.630,-104310.600,-31267.650,0.000
-89080.450,-92097.410,-64809.590,-62482.950,-65182.450,-41943.960,-104382.400,-31365.230,0.000
-89035.130,-92061.910,-65386.480,-63069.670,-65757.810,-41780.810,-104339.100,-31376.000,0.000
-89115.410,-92156.070,-65969.010,-63661.960,-66338.730,-41793.180,-104374.500,-31476.370,0.000
-89477.780,-92518.490,-66560.300,-64262.990,-66928.320,-42086.470,-104545.800,-31695.920,0.000
-89891.650,-92921.480,-67148.500,-64860.950,-67514.840,-42388.460,-104727.900,-31906.060,0.000
-90094.470,-93119.220,-67724.350,-65446.550,-68089.100,-42457.250,-104801.500,-32009.660,0.000
-90134.520,-93166.910,-68292.850,-66024.750,-68656.030,-42389.800,-104804.100,-32062.210,0.000
-90263.550,-93305.910,-68864.760,-66606.300,-69226.310,-42447.850,-104859.200,-32178.210,0.000
-90582.960,-93625.750,-69441.800,-67192.980,-69801.670,-42695.380,-105005.600,-32374.290,0.000
-90935.460,-93971.270,-70015.700,-67776.520,-70373.910,-42944.180,-105160.000,-32561.510,0.000
-91144.930,-94177.390,-70580.270,-68350.740,-70936.910,-43032.590,-105240.900,-32674.900,0.000
-91242.580,-94279.820,-71139.080,-68919.160,-71494.170,-43027.380,-105270.200,-32752.580,0.000
-91392.480,-94436.110,-71699.270,-69488.910,-72052.770,-43101.020,-105328.700,-32870.420,0.000
-91661.980,-94706.340,-72261.890,-70061.070,-72613.730,-43295.100,-105445.500,-33039.460,0.000
-91955.650,-94996.270,-72821.640,-70630.360,-73171.850,-43491.880,-105571.900,-33203.730,0.000
-92165.910,-95204.700,-73374.790,-71193.050,-73723.410,-43592.640,-105655.900,-33323.250,0.000
-92476.410,-95514.780,-73918.230,-71746.050,-74265.340,-43643.250,-105877.500,-33405.940,0.000
-92978.020,-96019.230,-74445.960,-72283.380,-74791.590,-43605.160,-106363.400,-33423.820,0.000
-93326.230,-96387.540,-74961.540,-72808.550,-75305.700,-43371.930,-106836.900,-33361.590,0.000
-93577.210,-96672.410,-75482.460,-73339.020,-75825.060,-43218.070,-107225.400,-33362.730,0.000
-94168.640,-97283.010,-76021.700,-73887.730,-76362.630,-43517.780,-107730.300,-33572.080,0.000
-95003.230,-98108.730,-76571.520,-74446.930,-76910.670,-44101.300,-108259.800,-33892.930,0.000
-95523.730,-98614.540,-77112.310,-74997.070,-77449.770,-44439.680,-108521.000,-34096.370,0.000
-95536.560,-98632.350,-77637.730,-75531.870,-77973.630,-44360.530,-108481.600,-34127.350,0.000
-95455.850,-98573.480,-78159.050,-76062.590,-78493.480,-44215.790,-108437.300,-34144.130,0.000
-95722.960,-98856.440,-78687.570,-76600.480,-79020.450,-44366.680,-108626.300,-34289.050,0.000
-96359.330,-99490.140,-79226.020,-77148.170,-79557.150,-44849.740,-109001.800,-34574.480,0.000
-97175.620,-100290.200,-79772.670,-77703.950,-80101.940,-45550.450,-109426.000,-34957.980,0.000
-98063.500,-101151.200,-80320.770,-78261.160,-80648.200,-46328.110,-109857.000,-35370.070,0.000
-98819.950,-101877.700,-80857.310,-78806.840,-81183.020,-46909.620,-110220.100,-35681.710,0.000
-99165.440,-102208.100,-81374.820,-79333.530,-81698.940,-47067.890,-110377.600,-35805.960,0.000
-99122.060,-102171.500,-81881.230,-79849.160,-82203.880,-46930.180,-110324.900,-35817.220,0.000
-99047.280,-102111.100,-82390.570,-80367.730,-82711.770,-46857.340,-110239.400,-35872.440,0.000
-99226.750,-102293.900,-82906.640,-80892.960,-83226.310,-47028.360,-110283.900,-36030.960,0.000
-99573.350,-102632.100,-83420.910,-81416.360,-83739.010,-47280.280,-110430.200,-36209.690,0.000
-99809.020,-102861.700,-83925.780,-81930.340,-84242.340,-47380.180,-110530.200,-36315.570,0.000
-99847.690,-102905.100,-84424.200,-82437.890,-84739.250,-47333.480,-110520.700,-36366.020,0.000
-99874.490,-102940.500,-84924.210,-82947.020,-85237.770,-47338.830,-110490.900,-36449.040,0.000
-100068.000,-103135.300,-85427.790,-83459.650,-85739.820,-47503.450,-110546.000,-36599.320,0.000
-100371.700,-103432.600,-85929.210,-83970.090,-86239.710,-47718.680,-110670.200,-36761.450,0.000
-100597.500,-103653.600,-86423.510,-84473.400,-86732.490,-47828.920,-110761.500,-36873.270,0.000
-100680.700,-103739.400,-86912.570,-84971.470,-87220.060,-47833.090,-110771.600,-36944.390,0.000
-100741.300,-103805.500,-87401.540,-85469.440,-87707.550,-47859.510,-110758.800,-37031.730,0.000
-100905.200,-103970.700,-87891.830,-85968.700,-88196.340,-47984.800,-110799.800,-37160.940,0.000
-101149.000,-104210.900,-88380.150,-86465.950,-88683.140,-48150.300,-110892.100,-37301.200,0.000
-101355.100,-104413.900,-88863.550,-86958.270,-89165.050,-48260.140,-110969.800,-37414.050,0.000
-101471.700,-104531.500,-89342.910,-87446.550,-89642.950,-48303.890,-110994.400,-37501.030,0.000
-101561.900,-104624.600,-89820.950,-87933.500,-90119.530,-48349.860,-110996.900,-37592.690,0.000
-101705.500,-104769.400,-90298.540,-88419.980,-90595.670,-48447.020,-111028.300,-37706.090,0.000
-101902.600,-104964.900,-90774.290,-88904.550,-91069.920,-48574.110,-111095.400,-37829.010,0.000
-102091.200,-105151.700,-91246.800,-89385.870,-91540.930,-48682.250,-111161.000,-37941.680,0.000
-102231.700,-105291.900,-91716.190,-89864.050,-92008.840,-48755.410,-111195.500,-38040.050,0.000
-102344.300,-105405.500,-92183.340,-90340.010,-92474.540,-48816.480,-111209.500,-38134.680,0.000
-102472.500,-105534.600,-92648.720,-90814.170,-92938.470,-48892.520,-111233.600,-38235.760,0.000
-102632.600,-105694.600,-93112.290,-91286.500,-93400.590,-48989.600,-111280.300,-38344.710,0.000
-102805.100,-105866.200,-93573.850,-91756.780,-93860.680,-49094.480,-111334.700,-38455.950,0.000
-102961.000,-106021.100,-94033.020,-92224.650,-94318.380,-49188.090,-111375.200,-38561.810,0.000
-103089.700,-106149.300,-94489.330,-92689.640,-94773.230,-49260.300,-111397.500,-38658.230,0.000
-103206.400,-106266.600,-94942.910,-93151.900,-95225.380,-49321.230,-111415.800,-38749.960,0.000
-103338.200,-106399.300,-95394.700,-93612.340,-95675.720,-49395.740,-111446.500,-38847.940,0.000
-103496.200,-106557.200,-95845.340,-94071.610,-96124.910,-49496.330,-111490.800,-38956.840,0.000
-103660.700,-106720.000,-96294.080,-94528.970,-96572.220,-49602.900,-111534.100,-39066.880,0.000
-103799.700,-106857.500,-96739.580,-94983.070,-97016.290,-49682.710,-111561.600,-39163.990,0.000
-103908.100,-106966.200,-97181.730,-95433.800,-97457.020,-49733.400,-111575.600,-39248.820,0.000
-104018.800,-107078.500,-97622.090,-95882.700,-97895.950,-49791.610,-111594.000,-39338.360,0.000
-104164.000,-107223.900,-98061.840,-96330.970,-98334.270,-49887.250,-111629.400,-39444.250,0.000
-104331.400,-107389.300,-98500.050,-96777.700,-98771.050,-50000.700,-111672.700,-39555.800,0.000
-104475.900,-107531.600,-98934.810,-97220.950,-99204.390,-50085.090,-111702.800,-39652.640,0.000
-104578.400,-107634.200,-99365.840,-97660.460,-99634.020,-50129.340,-111713.500,-39732.510,0.000
-104673.900,-107731.600,-99795.030,-98098.130,-100061.800,-50176.360,-111722.500,-39815.670,0.000
-104807.800,-107866.000,-100223.900,-98535.480,-100489.300,-50266.700,-111750.100,-39918.100,0.000
-104973.700,-108029.700,-100651.500,-98971.520,-100915.500,-50382.240,-111791.400,-40029.040,0.000
-105119.900,-108173.300,-101075.600,-99403.990,-101338.200,-50468.680,-111822.000,-40124.830,0.000
-105218.100,-108271.400,-101495.800,-99832.540,-101756.900,-50509.360,-111830.000,-40201.180,0.000
-105303.200,-108358.400,-101914.100,-100259.200,-102173.900,-50549.210,-111832.200,-40279.630,0.000
-105427.100,-108483.000,-102332.200,-100685.700,-102590.600,-50634.180,-111852.900,-40378.310,0.000
-105588.300,-108641.900,-102749.200,-101111.000,-103006.200,-50748.190,-111890.600,-40487.050,0.000
-105733.000,-108783.800,-103162.700,-101532.800,-103418.300,-50834.660,-111920.100,-40581.130,0.000
-105828.100,-108878.600,-103572.200,-101950.600,-103826.500,-50873.810,-111925.700,-40655.050,0.000
-105906.200,-108958.600,-103979.900,-102366.500,-104232.800,-50909.560,-111923.000,-40730.030,0.000
-106021.500,-109074.400,-104387.400,-102782.300,-104638.900,-50989.240,-111937.600,-40824.840,0.000
-106175.600,-109226.300,-104793.700,-103196.900,-105043.800,-51099.140,-111970.700,-40930.250,0.000
-106316.400,-109364.300,-105196.700,-103608.000,-105445.400,-51184.070,-111997.600,-41022.090,0.000
-106409.100,-109456.500,-105595.800,-104015.300,-105843.100,-51223.050,-112001.200,-41094.300,0.000
-106483.000,-109531.900,-105993.000,-104420.700,-106239.000,-51256.930,-111994.900,-41166.760,0.000
-106590.600,-109640.100,-106389.900,-104825.800,-106634.600,-51331.530,-112004.200,-41257.650,0.000
-107002.600,-110071.400,-106770.300,-105214.300,-107013.600,-51398.500,-112395.600,-41321.630,0.000
-107754.200,-110890.900,-107112.100,-105564.300,-107354.200,-51218.160,-113402.700,-41237.950,0.000
-108267.300,-111509.100,-107429.800,-105890.200,-107670.700,-50663.430,-114440.400,-40994.260,0.000
-108502.800,-111849.400,-107759.600,-106228.100,-107999.300,-50150.720,-115181.500,-40808.810,0.000
-109022.000,-112434.200,-108123.000,-106599.600,-108361.300,-50209.230,-115863.500,-40892.880,0.000
-109816.200,-113231.900,-108514.300,-106998.900,-108751.000,-50732.890,-116431.700,-41169.950,0.000
-110289.300,-113671.600,-108907.600,-107400.400,-109142.900,-51105.750,-116592.600,-41368.580,0.000
-110175.100,-113534.400,-109285.900,-107786.800,-109519.900,-51014.070,-116359.600,-41373.030,0.000
-109908.400,-113274.300,-109654.000,-108163.000,-109886.800,-50769.300,-116133.800,-41328.270,0.000
-110010.100,-113391.400,-110025.400,-108542.500,-110257.100,-50803.080,-116215.400,-41408.050,0.000
-110510.900,-113890.700,-110408.400,-108933.400,-110638.700,-51203.170,-116508.700,-41643.460,0.000
-111171.100,-114529.800,-110803.000,-109335.800,-111031.800,-51839.200,-116804.600,-41983.280,0.000
-111899.300,-115224.200,-111201.100,-109741.900,-111428.500,-52566.910,-117088.800,-42356.340,0.000
-112558.000,-115850.900,-111587.200,-110135.800,-111813.100,-53126.870,-117367.900,-42638.270,0.000
-112862.200,-116143.100,-111952.000,-110508.500,-112176.500,-53270.390,-117508.200,-42732.250,0.000
-112759.900,-116049.400,-112304.700,-110869.000,-112527.900,-53092.340,-117426.300,-42701.010,0.000
-112571.400,-115871.100,-112662.100,-111234.200,-112884.100,-52959.770,-117247.800,-42707.070,0.000
-112625.000,-115921.100,-113028.700,-111608.600,-113249.300,-53084.790,-117173.100,-42824.040,0.000
-112882.700,-116166.500,-113393.500,-111981.200,-113612.800,-53310.600,-117237.900,-42969.040,0.000
-113052.100,-116330.700,-113746.900,-112342.400,-113964.900,-53374.240,-117296.600,-43035.130,0.000
-113001.200,-116286.000,-114093.000,-112696.300,-114309.700,-53265.110,-117235.100,-43034.780,0.000
-112911.200,-116202.100,-114442.700,-113053.700,-114658.200,-53208.840,-117115.500,-43069.420,0.000
-113000.000,-116286.400,-114798.600,-113417.300,-115012.800,-53342.470,-117071.300,-43185.380,0.000
-113228.400,-116504.100,-115152.600,-113779.000,-115365.400,-53541.700,-117122.300,-43318.030,0.000
-113378.300,-116648.800,-115497.300,-114131.400,-115708.800,-53610.080,-117160.400,-43387.570,0.000
-113356.900,-116631.100,-115835.600,-114477.400,-116046.000,-53542.100,-117106.000,-43404.200,0.000
-113303.000,-116581.300,-116175.900,-114825.300,-116385.000,-53507.810,-117008.900,-43444.220,0.000
-113378.600,-116653.500,-116520.200,-115177.200,-116728.000,-53611.640,-116966.600,-43543.460,0.000
-113556.000,-116822.500,-116862.800,-115527.400,-117069.300,-53766.130,-116991.600,-43656.280,0.000
-113678.400,-116940.300,-117198.400,-115870.600,-117403.700,-53829.680,-117006.700,-43725.040,0.000
-113680.300,-116944.000,-117528.900,-116208.600,-117732.900,-53795.800,-116957.600,-43755.670,0.000
-113658.900,-116925.000,-117859.900,-116547.200,-118062.700,-53782.630,-116880.300,-43801.200,0.000
-113725.900,-116989.100,-118193.100,-116887.900,-118394.600,-53864.020,-116840.500,-43887.270,0.000
-113861.700,-117118.600,-118524.700,-117227.100,-118725.000,-53982.170,-116844.500,-43983.680,0.000
-113961.300,-117214.000,-118851.200,-117561.100,-119050.200,-54041.390,-116840.700,-44051.360,0.000
-113981.600,-117234.500,-119173.600,-117891.000,-119371.400,-54035.160,-116795.600,-44093.110,0.000
-113986.100,-117239.800,-119495.400,-118220.200,-119692.000,-54039.210,-116733.800,-44142.890,0.000
-114045.300,-117296.700,-119817.900,-118550.200,-120013.200,-54102.220,-116695.300,-44217.930,0.000
-114146.700,-117393.300,-120139.000,-118878.700,-120333.000,-54190.270,-116681.800,-44300.470,0.000
-114226.700,-117469.600,-120456.300,-119203.400,-120649.200,-54244.960,-116662.300,-44366.550,0.000
-114260.700,-117502.500,-120770.400,-119524.900,-120962.000,-54260.110,-116619.800,-44416.590,0.000
-114284.900,-117526.200,-121083.100,-119844.900,-121273.500,-54277.730,-116569.500,-44469.450,0.000
-114337.300,-117576.600,-121395.300,-120164.500,-121584.500,-54326.190,-116531.400,-44535.480,0.000
-114410.800,-117646.700,-121706.100,-120482.600,-121894.100,-54390.090,-116503.700,-44606.570,0.000
-114474.500,-117707.000,-122014.300,-120798.100,-122201.100,-54440.280,-116471.600,-44670.650,0.000
-114674.600,-117897.800,-122309.600,-121100.800,-122495.200,-54431.740,-116616.600,-44689.430,0.000
-115003.600,-118211.300,-122577.100,-121375.600,-122761.600,-54184.240,-117034.100,-44568.670,0.000
-115054.200,-118262.100,-122825.000,-121630.900,-123008.400,-53586.140,-117380.500,-44296.490,0.000
-114891.800,-118121.200,-123080.600,-121893.800,-123263.000,-53004.680,-117554.400,-44067.100,0.000
-115067.600,-118311.100,-123363.100,-122183.600,-123544.400,-52950.800,-117819.800,-44088.080,0.000
-115642.200,-118871.400,-123668.200,-122496.100,-123848.200,-53380.120,-118175.000,-44312.140,0.000
-116076.600,-119279.800,-123973.000,-122808.200,-124151.700,-53733.770,-118337.600,-44489.610,0.000
-116016.800,-119210.500,-124262.500,-123104.900,-124439.900,-53668.630,-118195.000,-44489.930,0.000
-115748.700,-118950.800,-124542.700,-123392.200,-124718.800,-53426.390,-117983.700,-44429.900,0.000
-115748.800,-118955.600,-124827.300,-123684.100,-125002.300,-53415.520,-117969.300,-44475.340,0.000
-116084.000,-119276.900,-125119.600,-123983.500,-125293.500,-53682.850,-118131.700,-44631.250,0.000
-116384.700,-119556.100,-125409.600,-124280.400,-125582.200,-53907.720,-118236.500,-44757.760,0.000
-116451.900,-119605.100,-125690.100,-124567.600,-125861.300,-53905.620,-118192.900,-44778.890,0.000
-116380.100,-119515.600,-125960.300,-124844.700,-126130.200,-53719.180,-118078.600,-44709.490,0.000
-116100.600,-119227.100,-126219.300,-125110.600,-126387.900,-53309.980,-117865.800,-44541.820,0.000
-115609.800,-118747.600,-126475.200,-125373.400,-126642.600,-52786.620,-117542.500,-44345.290,0.000
-115267.000,-118424.300,-126743.600,-125648.800,-126910.000,-52528.220,-117287.700,-44287.550,0.000
-115358.800,-118521.000,-127027.900,-125940.200,-127193.100,-52710.070,-117255.600,-44421.990,0.000
-115697.300,-118845.200,-127313.300,-126232.600,-127477.400,-53045.410,-117357.600,-44604.320,0.000
-115858.000,-118991.200,-127585.500,-126511.800,-127748.400,-53143.040,-117373.700,-44671.260,0.000
-115717.100,-118851.300,-127847.200,-126780.300,-128008.900,-52982.610,-117232.400,-44634.570,0.000
-115556.800,-118701.000,-128111.700,-127051.800,-128272.300,-52877.320,-117075.900,-44636.480,0.000
-115642.500,-118788.400,-128384.500,-127331.500,-128544.100,-53021.960,-117044.900,-44747.260,0.000
-115878.800,-119013.400,-128657.100,-127611.000,-128815.400,-53254.820,-117093.900,-44883.170,0.000
-115979.600,-119102.800,-128919.700,-127880.400,-129076.900,-53313.630,-117074.900,-44935.140,0.000
-115866.900,-118990.000,-129174.400,-128141.900,-129330.500,-53190.740,-116944.900,-44914.460,0.000
-115747.600,-118877.500,-129430.800,-128405.200,-129585.800,-53112.740,-116810.400,-44923.800,0.000
